# lambda (micron)    fractional filter transmission phi(lambda)
0.796101	0.00361430
0.796181	0.00368880
0.796262	0.00376320
0.796343	0.00383800
0.796423	0.00391240
0.796503	0.00398670
0.796584	0.00406140
0.796665	0.00413570
0.796745	0.00421000
0.796826	0.00428420
0.796906	0.00435830
0.796987	0.00443250
0.797068	0.00450750
0.797149	0.00458170
0.797229	0.00465580
0.797310	0.00473000
0.797390	0.00480410
0.797471	0.00487850
0.797552	0.00495260
0.797632	0.00502660
0.797713	0.00510100
0.797794	0.00517500
0.797875	0.00524890
0.797955	0.00532290
0.798036	0.00539760
0.798116	0.00547350
0.798198	0.00555020
0.798278	0.00562610
0.798359	0.00570210
0.798440	0.00577810
0.798520	0.00585410
0.798602	0.00593050
0.798682	0.00600660
0.798763	0.00608270
0.798844	0.00615920
0.798925	0.00623530
0.799006	0.00631140
0.799086	0.00638640
0.799167	0.00646130
0.799248	0.00653700
0.799329	0.00661190
0.799410	0.00668680
0.799491	0.00676170
0.799572	0.00683670
0.799652	0.00691160
0.799734	0.00698690
0.799814	0.00706180
0.799895	0.00713670
0.799976	0.00721200
0.800057	0.00745920
0.800138	0.00777760
0.800219	0.00809580
0.800300	0.00841400
0.800381	0.00873540
0.800462	0.00905290
0.800543	0.00936870
0.800624	0.00968790
0.800705	0.01000500
0.800786	0.01032200
0.800867	0.01064030
0.800948	0.01095690
0.801029	0.01122350
0.801110	0.01139730
0.801191	0.01157110
0.801272	0.01174480
0.801353	0.01191840
0.801434	0.01209200
0.801516	0.01226740
0.801596	0.01243990
0.801677	0.01261330
0.801759	0.01278760
0.801840	0.01296090
0.801921	0.01313510
0.802002	0.01330890
0.802083	0.01350630
0.802165	0.01370470
0.802246	0.01390210
0.802327	0.01409930
0.802408	0.01429660
0.802489	0.01449380
0.802570	0.01469120
0.802652	0.01489040
0.802732	0.01508660
0.802814	0.01528470
0.802895	0.01548180
0.802976	0.01567890
0.803058	0.01591440
0.803139	0.01616390
0.803220	0.01641310
0.803302	0.01666380
0.803383	0.01691310
0.803464	0.01716220
0.803545	0.01741110
0.803626	0.01766020
0.803708	0.01791160
0.803789	0.01815910
0.803870	0.01840770
0.803952	0.01865770
0.804033	0.01892480
0.804114	0.01921910
0.804196	0.01951480
0.804277	0.01980730
0.804358	0.02010120
0.804440	0.02039820
0.804521	0.02069190
0.804603	0.02098560
0.804684	0.02127900
0.804765	0.02157240
0.804847	0.02186890
0.804928	0.02216050
0.805010	0.02245560
0.805091	0.02276670
0.805173	0.02307630
0.805254	0.02338570
0.805336	0.02369700
0.805417	0.02400490
0.805499	0.02431800
0.805580	0.02462760
0.805662	0.02493730
0.805743	0.02524700
0.805824	0.02555680
0.805906	0.02586650
0.805988	0.02617790
0.806069	0.02654630
0.806151	0.02692460
0.806232	0.02730480
0.806314	0.02768260
0.806396	0.02806220
0.806477	0.02843720
0.806558	0.02881420
0.806641	0.02919500
0.806722	0.02957110
0.806804	0.02994700
0.806885	0.03032300
0.806967	0.03069830
0.807048	0.03110140
0.807130	0.03152650
0.807212	0.03194940
0.807294	0.03237440
0.807375	0.03279720
0.807457	0.03322000
0.807539	0.03364530
0.807620	0.03406600
0.807702	0.03448880
0.807784	0.03491650
0.807866	0.03533960
0.807947	0.03576260
0.808029	0.03626470
0.808110	0.03691120
0.808193	0.03756130
0.808274	0.03820780
0.808356	0.03885410
0.808438	0.03950400
0.808519	0.04014990
0.808601	0.04079590
0.808683	0.04144180
0.808765	0.04208740
0.808846	0.04273280
0.808929	0.04338550
0.809011	0.04402340
0.809092	0.04461310
0.809174	0.04520250
0.809256	0.04579140
0.809338	0.04638300
0.809420	0.04697140
0.809502	0.04755900
0.809584	0.04814950
0.809665	0.04873670
0.809747	0.04932330
0.809829	0.04990930
0.809911	0.05049540
0.809994	0.05108690
0.810075	0.05188910
0.810157	0.05270950
0.810239	0.05353000
0.810321	0.05435050
0.810403	0.05517140
0.810485	0.05599620
0.810567	0.05681710
0.810649	0.05763790
0.810731	0.05846310
0.810813	0.05928440
0.810895	0.06010530
0.810977	0.06092650
0.811059	0.06165740
0.811142	0.06236120
0.811224	0.06305660
0.811306	0.06375190
0.811388	0.06444700
0.811469	0.06514210
0.811552	0.06583700
0.811634	0.06653540
0.811716	0.06722960
0.811798	0.06792380
0.811880	0.06862170
0.811962	0.06931560
0.812044	0.07017880
0.812126	0.07118630
0.812208	0.07219400
0.812291	0.07321130
0.812373	0.07421780
0.812455	0.07521780
0.812538	0.07622870
0.812620	0.07723370
0.812702	0.07823800
0.812784	0.07924800
0.812866	0.08025130
0.812949	0.08126000
0.813031	0.08221640
0.813113	0.08309620
0.813195	0.08397570
0.813277	0.08485510
0.813360	0.08573360
0.813443	0.08662160
0.813525	0.08749980
0.813607	0.08837260
0.813689	0.08925490
0.813771	0.09013220
0.813854	0.09101350
0.813936	0.09189010
0.814019	0.09284190
0.814101	0.09406040
0.814183	0.09527220
0.814266	0.09648250
0.814348	0.09769220
0.814430	0.09890200
0.814512	0.10011100
0.814596	0.10133310
0.814677	0.10253430
0.814760	0.10374770
0.814843	0.10495470
0.814925	0.10616090
0.815008	0.10738080
0.815090	0.10867450
0.815172	0.10996740
0.815255	0.11126810
0.815337	0.11256090
0.815420	0.11385400
0.815502	0.11514700
0.815585	0.11643970
0.815668	0.11774650
0.815750	0.11903850
0.815832	0.12032430
0.815915	0.12162360
0.815998	0.12291580
0.816080	0.12427660
0.816163	0.12564630
0.816245	0.12700650
0.816327	0.12835870
0.816411	0.12973120
0.816493	0.13108780
0.816576	0.13244260
0.816658	0.13379620
0.816740	0.13514900
0.816823	0.13650750
0.816906	0.13785760
0.816989	0.13920560
0.817072	0.14065750
0.817154	0.14211690
0.817237	0.14357710
0.817320	0.14504500
0.817402	0.14650490
0.817485	0.14797220
0.817568	0.14943180
0.817650	0.15089200
0.817733	0.15235120
0.817815	0.15381120
0.817898	0.15527080
0.817981	0.15673820
0.818064	0.15837130
0.818147	0.16005370
0.818230	0.16174590
0.818312	0.16342930
0.818395	0.16512090
0.818478	0.16679480
0.818560	0.16847710
0.818644	0.17017810
0.818727	0.17186010
0.818809	0.17354280
0.818892	0.17522520
0.818975	0.17690730
0.819057	0.17863420
0.819141	0.18038760
0.819223	0.18213150
0.819307	0.18388350
0.819389	0.18562620
0.819472	0.18736500
0.819555	0.18911310
0.819638	0.19084370
0.819720	0.19257910
0.819804	0.19433620
0.819887	0.19607090
0.819970	0.19780490
0.820053	0.19969590
0.820135	0.20167680
0.820219	0.20366860
0.820302	0.20565020
0.820384	0.20762830
0.820468	0.20961740
0.820551	0.21159620
0.820634	0.21357390
0.820717	0.21555100
0.820799	0.21752710
0.820882	0.21950240
0.820966	0.22149730
0.821049	0.22328840
0.821132	0.22495510
0.821215	0.22661920
0.821298	0.22828440
0.821381	0.22995790
0.821464	0.23162110
0.821547	0.23328570
0.821631	0.23496000
0.821714	0.23662230
0.821797	0.23828580
0.821880	0.23995110
0.821963	0.24161420
0.822047	0.24366930
0.822130	0.24599890
0.822213	0.24832330
0.822296	0.25064420
0.822379	0.25296500
0.822462	0.25528360
0.822545	0.25761000
0.822629	0.25992230
0.822712	0.26223210
0.822795	0.26455270
0.822878	0.26685580
0.822961	0.26915700
0.823045	0.27115940
0.823128	0.27290770
0.823212	0.27467260
0.823295	0.27642060
0.823378	0.27816470
0.823461	0.27991110
0.823544	0.28165720
0.823628	0.28340240
0.823711	0.28515470
0.823794	0.28689950
0.823878	0.28865310
0.823961	0.29039610
0.824045	0.29229770
0.824128	0.29433140
0.824211	0.29636570
0.824294	0.29839690
0.824379	0.30045040
0.824462	0.30248080
0.824545	0.30451030
0.824628	0.30653850
0.824712	0.30856510
0.824795	0.31060060
0.824879	0.31262720
0.824962	0.31465050
0.825046	0.31701110
0.825129	0.31962370
0.825213	0.32223820
0.825296	0.32485270
0.825379	0.32746190
0.825463	0.33007360
0.825547	0.33271190
0.825631	0.33532130
0.825714	0.33793020
0.825797	0.34053750
0.825881	0.34314630
0.825965	0.34576320
0.826048	0.34848030
0.826131	0.35127390
0.826215	0.35408450
0.826299	0.35687470
0.826382	0.35966660
0.826466	0.36245630
0.826549	0.36524430
0.826633	0.36803100
0.826717	0.37084520
0.826800	0.37361460
0.826884	0.37641000
0.826968	0.37919290
0.827051	0.38171420
0.827135	0.38408760
0.827219	0.38644920
0.827302	0.38879600
0.827386	0.39117850
0.827470	0.39353700
0.827554	0.39589440
0.827637	0.39824970
0.827721	0.40060390
0.827805	0.40298590
0.827889	0.40533690
0.827972	0.40767830
0.828056	0.41018830
0.828140	0.41275270
0.828224	0.41531920
0.828308	0.41789700
0.828391	0.42046110
0.828475	0.42300880
0.828559	0.42560050
0.828643	0.42816090
0.828727	0.43072020
0.828810	0.43327770
0.828894	0.43583730
0.828979	0.43841910
0.829062	0.44120840
0.829146	0.44409790
0.829230	0.44699840
0.829314	0.44988210
0.829398	0.45276310
0.829482	0.45565500
0.829565	0.45851560
0.829650	0.46141810
0.829733	0.46428770
0.829817	0.46715640
0.829901	0.47001880
0.829985	0.47287980
0.830069	0.47544500
0.830154	0.47797080
0.830237	0.48045480
0.830321	0.48295180
0.830405	0.48545890
0.830489	0.48795040
0.830573	0.49045710
0.830657	0.49294690
0.830741	0.49543500
0.830826	0.49793670
0.830910	0.50042510
0.830993	0.50290700
0.831077	0.50417170
0.831161	0.50533070
0.831245	0.50648830
0.831330	0.50765370
0.831414	0.50881000
0.831498	0.50997240
0.831582	0.51112910
0.831666	0.51228410
0.831751	0.51344340
0.831835	0.51459510
0.831918	0.51574180
0.832003	0.51701500
0.832087	0.52099380
0.832171	0.52496610
0.832255	0.52894200
0.832340	0.53291520
0.832424	0.53691030
0.832508	0.54088400
0.832592	0.54485310
0.832677	0.54884540
0.832761	0.55281260
0.832845	0.55678340
0.832930	0.56077090
0.833014	0.56448190
0.833097	0.56688630
0.833183	0.56932980
0.833267	0.57174080
0.833351	0.57415190
0.833435	0.57656200
0.833519	0.57897330
0.833604	0.58138910
0.833688	0.58379530
0.833772	0.58619700
0.833857	0.58861010
0.833941	0.59101010
0.834025	0.59347420
0.834110	0.59611620
0.834194	0.59872770
0.834279	0.60137980
0.834363	0.60400350
0.834448	0.60662580
0.834532	0.60924980
0.834616	0.61186860
0.834701	0.61448900
0.834785	0.61712180
0.834870	0.61974210
0.834954	0.62235800
0.835039	0.62446600
0.835123	0.62594350
0.835208	0.62742520
0.835292	0.62889960
0.835376	0.63036400
0.835462	0.63185230
0.835546	0.63332380
0.835630	0.63479510
0.835715	0.63626600
0.835799	0.63773600
0.835884	0.63920560
0.835969	0.64068080
0.836053	0.64351580
0.836138	0.64717700
0.836222	0.65081880
0.836307	0.65446010
0.836392	0.65811830
0.836476	0.66173710
0.836560	0.66537060
0.836646	0.66904390
0.836730	0.67265220
0.836814	0.67628420
0.836899	0.67992980
0.836984	0.68355670
0.837069	0.68532360
0.837153	0.68664250
0.837238	0.68796010
0.837323	0.68928430
0.837408	0.69059930
0.837492	0.69191230
0.837577	0.69322640
0.837661	0.69453630
0.837746	0.69584670
0.837832	0.69716870
0.837916	0.69846800
0.838001	0.69979060
0.838085	0.70196360
0.838170	0.70413710
0.838255	0.70632210
0.838340	0.70849480
0.838425	0.71066730
0.838510	0.71284940
0.838594	0.71501880
0.838679	0.71719000
0.838764	0.71935880
0.838849	0.72152880
0.838934	0.72372040
0.839019	0.72575320
0.839103	0.72736200
0.839189	0.72897940
0.839273	0.73058700
0.839358	0.73219460
0.839443	0.73381100
0.839528	0.73541760
0.839613	0.73702500
0.839698	0.73864030
0.839783	0.74024760
0.839868	0.74185440
0.839953	0.74346150
0.840038	0.74574640
0.840123	0.74890860
0.840208	0.75201330
0.840293	0.75513650
0.840378	0.75826790
0.840463	0.76137850
0.840548	0.76448580
0.840633	0.76760670
0.840718	0.77070920
0.840803	0.77382210
0.840889	0.77691470
0.840973	0.78000310
0.841058	0.78179760
0.841143	0.78300300
0.841228	0.78420620
0.841314	0.78541670
0.841399	0.78661880
0.841484	0.78782090
0.841569	0.78902730
0.841654	0.79022520
0.841740	0.79142990
0.841825	0.79262560
0.841910	0.79382000
0.841995	0.79502030
0.842080	0.79473610
0.842165	0.79436360
0.842250	0.79398950
0.842335	0.79361640
0.842421	0.79324520
0.842506	0.79286930
0.842591	0.79249720
0.842676	0.79212470
0.842762	0.79174920
0.842847	0.79137500
0.842933	0.79099940
0.843018	0.79151060
0.843103	0.79534240
0.843189	0.79918780
0.843274	0.80301200
0.843359	0.80682770
0.843444	0.81063820
0.843530	0.81444890
0.843615	0.81825050
0.843700	0.82207170
0.843785	0.82586290
0.843871	0.82967710
0.843957	0.83346250
0.844042	0.83578410
0.844127	0.83659330
0.844213	0.83739760
0.844298	0.83820120
0.844384	0.83900790
0.844469	0.83980800
0.844554	0.84060790
0.844640	0.84140830
0.844725	0.84220860
0.844811	0.84300970
0.844896	0.84380920
0.844982	0.84460860
0.845067	0.84503020
0.845153	0.84534580
0.845238	0.84566110
0.845324	0.84597850
0.845409	0.84629440
0.845495	0.84660820
0.845581	0.84692420
0.845666	0.84723860
0.845751	0.84755090
0.845837	0.84786190
0.845922	0.84817310
0.846008	0.84867690
0.846094	0.85095430
0.846179	0.85322750
0.846265	0.85551050
0.846351	0.85778070
0.846436	0.86005180
0.846522	0.86232920
0.846607	0.86458090
0.846694	0.86686670
0.846779	0.86912640
0.846865	0.87138420
0.846950	0.87363950
0.847036	0.87556820
0.847121	0.87704470
0.847207	0.87852930
0.847293	0.87999940
0.847378	0.88147160
0.847465	0.88295400
0.847550	0.88442220
0.847636	0.88589820
0.847722	0.88736510
0.847807	0.88882360
0.847894	0.89030060
0.847979	0.89176470
0.848065	0.89311720
0.848151	0.89445100
0.848236	0.89577600
0.848322	0.89709830
0.848408	0.89842870
0.848494	0.89975280
0.848580	0.90108380
0.848666	0.90240590
0.848751	0.90372630
0.848838	0.90505600
0.848923	0.90636980
0.849009	0.90761970
0.849095	0.90823210
0.849181	0.90883760
0.849267	0.90943660
0.849353	0.91004350
0.849439	0.91064610
0.849525	0.91125010
0.849611	0.91184580
0.849697	0.91244450
0.849783	0.91304270
0.849869	0.91363620
0.849955	0.91422810
0.850041	0.91497420
0.850126	0.91587850
0.850212	0.91678290
0.850299	0.91769790
0.850384	0.91859880
0.850471	0.91950660
0.850557	0.92040910
0.850643	0.92130950
0.850729	0.92221190
0.850815	0.92311100
0.850901	0.92401040
0.850987	0.92491230
0.851073	0.92624800
0.851159	0.92765950
0.851245	0.92907180
0.851331	0.93048190
0.851418	0.93190580
0.851504	0.93330540
0.851590	0.93471480
0.851676	0.93612860
0.851762	0.93753500
0.851848	0.93893900
0.851935	0.94034930
0.852021	0.94156020
0.852107	0.94217610
0.852193	0.94279560
0.852280	0.94340860
0.852366	0.94402370
0.852452	0.94463580
0.852538	0.94524760
0.852625	0.94586620
0.852710	0.94647180
0.852797	0.94708090
0.852883	0.94769370
0.852969	0.94830260
0.853056	0.94896700
0.853142	0.94966880
0.853228	0.95036460
0.853315	0.95106040
0.853401	0.95175220
0.853488	0.95244260
0.853574	0.95313230
0.853660	0.95381960
0.853746	0.95450680
0.853833	0.95519750
0.853919	0.95588100
0.854005	0.95655190
0.854092	0.95708730
0.854178	0.95761420
0.854265	0.95814650
0.854351	0.95867540
0.854438	0.95920190
0.854525	0.95973050
0.854611	0.96025720
0.854697	0.96078180
0.854784	0.96130640
0.854870	0.96183060
0.854956	0.96235450
0.855043	0.96263330
0.855130	0.96265950
0.855216	0.96268330
0.855303	0.96270900
0.855389	0.96273470
0.855476	0.96276250
0.855562	0.96278580
0.855649	0.96280830
0.855736	0.96283170
0.855822	0.96285360
0.855909	0.96287640
0.855995	0.96289860
0.856082	0.96373240
0.856169	0.96462220
0.856255	0.96550330
0.856342	0.96638340
0.856428	0.96726860
0.856515	0.96814770
0.856601	0.96902530
0.856689	0.96990900
0.856775	0.97078530
0.856862	0.97166020
0.856949	0.97253960
0.857035	0.97322130
0.857122	0.97362330
0.857208	0.97402500
0.857295	0.97442710
0.857382	0.97482910
0.857469	0.97522520
0.857555	0.97562280
0.857642	0.97602340
0.857729	0.97642080
0.857816	0.97681740
0.857903	0.97721270
0.857990	0.97760890
0.858077	0.97779800
0.858163	0.97795800
0.858250	0.97811860
0.858337	0.97827790
0.858423	0.97843440
0.858510	0.97859380
0.858597	0.97875050
0.858684	0.97890700
0.858771	0.97906160
0.858858	0.97921720
0.858945	0.97937230
0.859031	0.97954140
0.859119	0.97973730
0.859206	0.97992890
0.859293	0.98012240
0.859380	0.98031410
0.859466	0.98050660
0.859553	0.98069480
0.859640	0.98088310
0.859727	0.98107340
0.859814	0.98126350
0.859901	0.98145150
0.859988	0.98163860
0.860075	0.98307920
0.860162	0.98470770
0.860250	0.98634470
0.860336	0.98797120
0.860423	0.98959800
0.860511	0.99123090
0.860598	0.99285450
0.860684	0.99446550
0.860772	0.99608980
0.860858	0.99770650
0.860945	0.99932100
0.861033	1.00000000
0.861120	0.99911670
0.861207	0.99822650
0.861294	0.99734130
0.861381	0.99645800
0.861469	0.99556990
0.861555	0.99469080
0.861642	0.99380600
0.861730	0.99291160
0.861817	0.99202650
0.861904	0.99114810
0.861992	0.99026120
0.862079	0.99069190
0.862166	0.99126840
0.862253	0.99183960
0.862340	0.99240840
0.862428	0.99297920
0.862515	0.99354440
0.862602	0.99411130
0.862690	0.99468160
0.862776	0.99524270
0.862864	0.99580640
0.862952	0.99637200
0.863039	0.99593910
0.863126	0.99425150
0.863213	0.99257130
0.863300	0.99089200
0.863388	0.98920460
0.863475	0.98752770
0.863563	0.98585120
0.863650	0.98416750
0.863738	0.98249240
0.863825	0.98082000
0.863912	0.97914540
0.863999	0.97747470
0.864088	0.97879870
0.864175	0.98013030
0.864262	0.98145120
0.864350	0.98278650
0.864437	0.98411170
0.864524	0.98543470
0.864612	0.98676610
0.864699	0.98808820
0.864787	0.98941150
0.864874	0.99073610
0.864962	0.99205420
0.865050	0.99244890
0.865137	0.99213050
0.865224	0.99181050
0.865312	0.99149040
0.865399	0.99116840
0.865487	0.99084600
0.865575	0.99052360
0.865662	0.99020410
0.865750	0.98988310
0.865837	0.98955890
0.865925	0.98923530
0.866013	0.98901900
0.866100	0.98940870
0.866188	0.98979620
0.866275	0.99018370
0.866363	0.99057130
0.866450	0.99095770
0.866538	0.99134560
0.866626	0.99173140
0.866713	0.99211730
0.866801	0.99250300
0.866889	0.99288540
0.866977	0.99327130
0.867065	0.99301640
0.867152	0.99253270
0.867240	0.99204630
0.867328	0.99156290
0.867416	0.99108130
0.867503	0.99059960
0.867591	0.99011420
0.867678	0.98963120
0.867767	0.98914650
0.867854	0.98866480
0.867942	0.98817990
0.868030	0.98796470
0.868118	0.98826970
0.868206	0.98857650
0.868294	0.98887880
0.868381	0.98918230
0.868469	0.98948670
0.868557	0.98978850
0.868645	0.99008940
0.868733	0.99039040
0.868820	0.99068980
0.868909	0.99098710
0.868997	0.99128670
0.869084	0.99102410
0.869173	0.99073220
0.869260	0.99044440
0.869348	0.99015680
0.869436	0.98986710
0.869524	0.98957980
0.869612	0.98929110
0.869700	0.98899430
0.869788	0.98870820
0.869876	0.98841790
0.869964	0.98813030
0.870052	0.98812560
0.870140	0.98831810
0.870228	0.98850910
0.870316	0.98870050
0.870405	0.98889010
0.870492	0.98907950
0.870580	0.98926660
0.870669	0.98945630
0.870757	0.98964220
0.870845	0.98982740
0.870933	0.99001070
0.871021	0.99002030
0.871109	0.98947600
0.871197	0.98893150
0.871285	0.98838370
0.871374	0.98783660
0.871462	0.98729310
0.871550	0.98674850
0.871638	0.98619890
0.871726	0.98565320
0.871815	0.98510360
0.871903	0.98456180
0.871991	0.98401230
0.872079	0.98378290
0.872168	0.98359210
0.872256	0.98340030
0.872344	0.98320720
0.872432	0.98301420
0.872520	0.98282150
0.872609	0.98262610
0.872697	0.98243140
0.872785	0.98223670
0.872874	0.98204130
0.872962	0.98184760
0.873050	0.98152390
0.873139	0.98110770
0.873226	0.98069660
0.873316	0.98027600
0.873404	0.97985880
0.873492	0.97944270
0.873580	0.97902640
0.873668	0.97860970
0.873757	0.97819200
0.873845	0.97777590
0.873934	0.97735890
0.874023	0.97718050
0.874111	0.97770310
0.874199	0.97822310
0.874288	0.97874990
0.874376	0.97927170
0.874464	0.97978870
0.874553	0.98031360
0.874642	0.98083180
0.874730	0.98134790
0.874818	0.98186340
0.874907	0.98237770
0.874996	0.98289800
0.875084	0.98210190
0.875172	0.98123890
0.875261	0.98036820
0.875350	0.97950360
0.875438	0.97864030
0.875527	0.97777200
0.875615	0.97691180
0.875703	0.97605280
0.875793	0.97517800
0.875881	0.97431900
0.875970	0.97345120
0.876058	0.97325640
0.876147	0.97340430
0.876236	0.97355250
0.876324	0.97369970
0.876413	0.97384370
0.876502	0.97398640
0.876590	0.97413040
0.876679	0.97427650
0.876767	0.97442180
0.876856	0.97456280
0.876946	0.97470520
0.877034	0.97455820
0.877122	0.97395080
0.877211	0.97333310
0.877300	0.97272190
0.877389	0.97211150
0.877478	0.97149680
0.877566	0.97088570
0.877655	0.97027400
0.877744	0.96965900
0.877833	0.96904700
0.877922	0.96843350
0.878010	0.96788340
0.878099	0.96777350
0.878189	0.96766200
0.878277	0.96755200
0.878366	0.96743730
0.878455	0.96732310
0.878543	0.96721080
0.878632	0.96709840
0.878722	0.96698580
0.878810	0.96687340
0.878900	0.96675570
0.878988	0.96664450
0.879077	0.96639730
0.879166	0.96613310
0.879255	0.96586860
0.879343	0.96560430
0.879433	0.96533750
0.879522	0.96507460
0.879610	0.96481000
0.879700	0.96454170
0.879789	0.96427440
0.879878	0.96400700
0.879967	0.96374110
0.880056	0.96328060
0.880145	0.96270350
0.880234	0.96212870
0.880323	0.96155180
0.880412	0.96097720
0.880501	0.96039800
0.880590	0.95982390
0.880679	0.95924500
0.880768	0.95866910
0.880858	0.95808830
0.880947	0.95751330
0.881036	0.95711050
0.881125	0.95696050
0.881214	0.95681180
0.881303	0.95665940
0.881393	0.95650960
0.881482	0.95635990
0.881571	0.95620790
0.881660	0.95605670
0.881749	0.95590570
0.881839	0.95575290
0.881927	0.95560060
0.882017	0.95524430
0.882106	0.95399290
0.882195	0.95275170
0.882284	0.95150850
0.882374	0.95026180
0.882463	0.94902280
0.882552	0.94778280
0.882642	0.94653700
0.882731	0.94529970
0.882820	0.94406280
0.882909	0.94282700
0.882999	0.94159040
0.883088	0.94128850
0.883177	0.94100070
0.883267	0.94071180
0.883356	0.94042400
0.883446	0.94013580
0.883535	0.93984590
0.883625	0.93955790
0.883714	0.93926910
0.883804	0.93897650
0.883893	0.93868550
0.883982	0.93839720
0.884072	0.93871960
0.884161	0.93918900
0.884250	0.93965750
0.884340	0.94012890
0.884429	0.94059660
0.884519	0.94106250
0.884608	0.94152890
0.884698	0.94199010
0.884788	0.94245660
0.884877	0.94292000
0.884967	0.94338100
0.885056	0.94326020
0.885146	0.94279560
0.885235	0.94233080
0.885325	0.94186570
0.885414	0.94140150
0.885503	0.94093670
0.885593	0.94046950
0.885683	0.94000450
0.885773	0.93953510
0.885862	0.93906940
0.885952	0.93860100
0.886042	0.93815990
0.886131	0.93775680
0.886220	0.93735630
0.886311	0.93694630
0.886400	0.93654060
0.886490	0.93613460
0.886580	0.93573400
0.886669	0.93532860
0.886759	0.93491810
0.886849	0.93451140
0.886938	0.93410430
0.887028	0.93368890
0.887118	0.93326670
0.887208	0.93284170
0.887298	0.93241560
0.887387	0.93198930
0.887476	0.93156690
0.887567	0.93113770
0.887657	0.93071270
0.887746	0.93028810
0.887836	0.92986240
0.887926	0.92943770
0.888016	0.92901930
0.888106	0.92862920
0.888195	0.92824060
0.888285	0.92784990
0.888375	0.92746280
0.888465	0.92707230
0.888555	0.92667950
0.888644	0.92629150
0.888735	0.92589900
0.888825	0.92551140
0.888915	0.92512160
0.889005	0.92473320
0.889094	0.92440300
0.889184	0.92407410
0.889275	0.92374310
0.889365	0.92341360
0.889454	0.92308350
0.889545	0.92275140
0.889634	0.92242090
0.889725	0.92208740
0.889815	0.92175460
0.889904	0.92142420
0.889995	0.92108650
0.890085	0.92056800
0.890174	0.92004680
0.890265	0.91951510
0.890355	0.91898450
0.890445	0.91845360
0.890535	0.91792160
0.890625	0.91739500
0.890715	0.91686340
0.890805	0.91633380
0.890895	0.91580480
0.890985	0.91527410
0.891075	0.91445810
0.891165	0.91358740
0.891256	0.91270810
0.891346	0.91184140
0.891436	0.91096880
0.891527	0.91009340
0.891617	0.90922210
0.891707	0.90835260
0.891797	0.90747790
0.891887	0.90660880
0.891978	0.90573610
0.892068	0.90547850
0.892158	0.90541580
0.892248	0.90535550
0.892338	0.90529520
0.892428	0.90523160
0.892520	0.90516610
0.892609	0.90510620
0.892700	0.90504120
0.892790	0.90497510
0.892880	0.90491030
0.892971	0.90484500
0.893061	0.90467430
0.893151	0.90445300
0.893242	0.90423080
0.893332	0.90401130
0.893423	0.90379180
0.893513	0.90356980
0.893603	0.90334400
0.893693	0.90312320
0.893784	0.90289900
0.893875	0.90267720
0.893965	0.90245250
0.894056	0.90201520
0.894146	0.90144660
0.894237	0.90087540
0.894327	0.90030450
0.894417	0.89973510
0.894508	0.89916680
0.894599	0.89859710
0.894689	0.89802780
0.894779	0.89745860
0.894870	0.89689180
0.894961	0.89631730
0.895051	0.89573590
0.895141	0.89514130
0.895232	0.89454580
0.895323	0.89395190
0.895413	0.89336020
0.895504	0.89276110
0.895595	0.89216990
0.895685	0.89157460
0.895776	0.89097930
0.895867	0.89038240
0.895957	0.88978820
0.896048	0.88934490
0.896138	0.88903610
0.896229	0.88872730
0.896320	0.88841870
0.896410	0.88810930
0.896501	0.88779960
0.896592	0.88748910
0.896682	0.88717860
0.896773	0.88686580
0.896864	0.88655530
0.896955	0.88624210
0.897046	0.88574680
0.897136	0.88507140
0.897227	0.88439500
0.897318	0.88371800
0.897408	0.88304210
0.897499	0.88236010
0.897590	0.88168670
0.897681	0.88100890
0.897772	0.88032950
0.897863	0.87965330
0.897954	0.87897460
0.898044	0.87857650
0.898135	0.87846580
0.898226	0.87835620
0.898317	0.87824490
0.898408	0.87813520
0.898499	0.87802170
0.898590	0.87791130
0.898680	0.87779860
0.898772	0.87768610
0.898862	0.87757380
0.898954	0.87745660
0.899044	0.87717150
0.899135	0.87671190
0.899227	0.87624640
0.899317	0.87578110
0.899408	0.87531930
0.899500	0.87485510
0.899590	0.87438990
0.899681	0.87392550
0.899772	0.87346340
0.899863	0.87300040
0.899955	0.87253440
0.900045	0.87208110
0.900136	0.87164080
0.900228	0.87120000
0.900319	0.87075880
0.900410	0.87031940
0.900501	0.86987840
0.900592	0.86943140
0.900683	0.86899170
0.900775	0.86854630
0.900865	0.86810430
0.900956	0.86766360
0.901048	0.86698510
0.901139	0.86608600
0.901230	0.86518220
0.901321	0.86428610
0.901412	0.86338970
0.901504	0.86248780
0.901595	0.86159180
0.901686	0.86069700
0.901777	0.85979420
0.901868	0.85890300
0.901960	0.85800060
0.902051	0.85750000
0.902142	0.85730780
0.902233	0.85711900
0.902325	0.85692950
0.902416	0.85673510
0.902507	0.85654080
0.902599	0.85635120
0.902690	0.85615620
0.902781	0.85596210
0.902873	0.85576800
0.902964	0.85557130
0.903056	0.85501830
0.903146	0.85424160
0.903239	0.85345210
0.903330	0.85266990
0.903420	0.85189190
0.903512	0.85110890
0.903603	0.85032570
0.903695	0.84954650
0.903787	0.84876180
0.903878	0.84798060
0.903970	0.84719430
0.904061	0.84670670
0.904152	0.84636520
0.904244	0.84602240
0.904335	0.84568340
0.904426	0.84534080
0.904519	0.84499090
0.904610	0.84464900
0.904701	0.84430870
0.904793	0.84396630
0.904884	0.84362130
0.904976	0.84327380
0.905068	0.84273500
0.905159	0.84212490
0.905251	0.84151190
0.905342	0.84090530
0.905434	0.84029690
0.905526	0.83968590
0.905617	0.83907930
0.905708	0.83847340
0.905800	0.83786160
0.905892	0.83725340
0.905984	0.83663970
0.906075	0.83611440
0.906167	0.83561100
0.906259	0.83510270
0.906350	0.83459650
0.906442	0.83409280
0.906534	0.83358820
0.906626	0.83308340
0.906717	0.83257600
0.906809	0.83206570
0.906900	0.83155850
0.906992	0.83105330
0.907084	0.83064290
0.907176	0.83025040
0.907268	0.82985230
0.907360	0.82945540
0.907451	0.82905790
0.907543	0.82865580
0.907635	0.82825660
0.907727	0.82785970
0.907819	0.82745730
0.907911	0.82705730
0.908002	0.82666060
0.908094	0.82634130
0.908186	0.82602300
0.908278	0.82570110
0.908370	0.82537840
0.908461	0.82505480
0.908554	0.82472990
0.908646	0.82440730
0.908737	0.82408470
0.908830	0.82376040
0.908922	0.82343430
0.909013	0.82302170
0.909106	0.82208210
0.909198	0.82114680
0.909289	0.82021090
0.909381	0.81927850
0.909473	0.81834170
0.909565	0.81740100
0.909657	0.81646890
0.909749	0.81553660
0.909842	0.81459740
0.909933	0.81366470
0.910025	0.81297300
0.910118	0.81290790
0.910210	0.81284100
0.910302	0.81277500
0.910394	0.81270850
0.910486	0.81263530
0.910578	0.81256630
0.910670	0.81249730
0.910762	0.81242950
0.910855	0.81235960
0.910947	0.81228880
0.911039	0.81195480
0.911131	0.81125710
0.911223	0.81056370
0.911316	0.80986690
0.911408	0.80917380
0.911500	0.80848250
0.911592	0.80778540
0.911685	0.80709170
0.911777	0.80639500
0.911869	0.80570190
0.911961	0.80500900
0.912053	0.80453950
0.912146	0.80423590
0.912238	0.80393270
0.912330	0.80362470
0.912423	0.80331930
0.912515	0.80301490
0.912607	0.80270680
0.912700	0.80240150
0.912792	0.80208900
0.912884	0.80178280
0.912977	0.80147400
0.913069	0.80071080
0.913161	0.79979400
0.913253	0.79887730
0.913346	0.79795640
0.913439	0.79703980
0.913531	0.79612130
0.913624	0.79520180
0.913716	0.79428830
0.913808	0.79337220
0.913901	0.79245300
0.913993	0.79154070
0.914085	0.79120100
0.914178	0.79090230
0.914271	0.79060520
0.914363	0.79030880
0.914456	0.79001200
0.914548	0.78971600
0.914641	0.78941600
0.914733	0.78911560
0.914826	0.78881860
0.914918	0.78851930
0.915011	0.78817890
0.915103	0.78753150
0.915196	0.78687800
0.915289	0.78623110
0.915382	0.78557600
0.915474	0.78492760
0.915567	0.78427810
0.915659	0.78363110
0.915752	0.78298390
0.915844	0.78233230
0.915937	0.78167650
0.916030	0.78134680
0.916122	0.78169160
0.916215	0.78203700
0.916308	0.78237700
0.916401	0.78271830
0.916493	0.78305800
0.916585	0.78339270
0.916679	0.78373290
0.916772	0.78406860
0.916864	0.78439970
0.916957	0.78473510
0.917050	0.78403160
0.917142	0.78242610
0.917235	0.78081530
0.917328	0.77921200
0.917421	0.77760130
0.917514	0.77600210
0.917607	0.77440610
0.917700	0.77280120
0.917792	0.77121220
0.917885	0.76961880
0.917978	0.76800860
0.918071	0.76738140
0.918163	0.76704640
0.918257	0.76670700
0.918349	0.76636870
0.918443	0.76602800
0.918535	0.76568920
0.918628	0.76535080
0.918722	0.76500850
0.918814	0.76466830
0.918907	0.76432830
0.919000	0.76398290
0.919093	0.76347020
0.919186	0.76294880
0.919280	0.76242240
0.919372	0.76190310
0.919465	0.76138140
0.919558	0.76086260
0.919651	0.76034080
0.919744	0.75981500
0.919837	0.75929300
0.919930	0.75877130
0.920024	0.75832040
0.920117	0.75808660
0.920210	0.75785400
0.920302	0.75762250
0.920395	0.75738850
0.920490	0.75715150
0.920582	0.75691860
0.920675	0.75668030
0.920768	0.75644320
0.920861	0.75620790
0.920955	0.75597110
0.921048	0.75535020
0.921141	0.75437410
0.921234	0.75339910
0.921328	0.75242000
0.921421	0.75144290
0.921514	0.75046360
0.921607	0.74949360
0.921700	0.74852390
0.921794	0.74754140
0.921887	0.74656740
0.921980	0.74559710
0.922074	0.74528200
0.922167	0.74514530
0.922260	0.74501060
0.922353	0.74487410
0.922447	0.74473940
0.922540	0.74460410
0.922633	0.74446630
0.922727	0.74432600
0.922820	0.74418930
0.922913	0.74405400
0.923006	0.74387470
0.923100	0.74318730
0.923193	0.74250640
0.923287	0.74182710
0.923381	0.74113970
0.923474	0.74045930
0.923567	0.73977660
0.923661	0.73908870
0.923754	0.73840740
0.923848	0.73772260
0.923941	0.73704220
0.924035	0.73648770
0.924128	0.73614680
0.924221	0.73580670
0.924315	0.73547060
0.924408	0.73512660
0.924502	0.73478800
0.924595	0.73444870
0.924689	0.73410570
0.924783	0.73376550
0.924877	0.73341890
0.924970	0.73307350
0.925063	0.73242050
0.925157	0.73161390
0.925251	0.73080880
0.925344	0.73000610
0.925438	0.72920620
0.925531	0.72840180
0.925625	0.72760120
0.925719	0.72679440
0.925812	0.72598960
0.925906	0.72518620
0.926000	0.72438400
0.926093	0.72430010
0.926187	0.72421870
0.926281	0.72413730
0.926375	0.72405460
0.926469	0.72397100
0.926562	0.72388690
0.926656	0.72380170
0.926749	0.72371500
0.926843	0.72362590
0.926937	0.72353620
0.927031	0.72330670
0.927125	0.72278930
0.927219	0.72226890
0.927312	0.72175080
0.927406	0.72123270
0.927500	0.72071110
0.927594	0.72019440
0.927687	0.71967350
0.927782	0.71914970
0.927875	0.71863100
0.927969	0.71811260
0.928063	0.71760350
0.928157	0.71709760
0.928251	0.71659040
0.928345	0.71608600
0.928439	0.71558070
0.928533	0.71507260
0.928627	0.71456830
0.928720	0.71406220
0.928815	0.71355430
0.928909	0.71304710
0.929003	0.71253680
0.929097	0.71209230
0.929191	0.71164510
0.929285	0.71120130
0.929378	0.71075220
0.929472	0.71030300
0.929567	0.70985330
0.929660	0.70940510
0.929755	0.70895920
0.929849	0.70850910
0.929943	0.70805610
0.930037	0.70753780
0.930131	0.70692340
0.930225	0.70630970
0.930320	0.70568990
0.930414	0.70507550
0.930508	0.70446020
0.930602	0.70384300
0.930696	0.70322770
0.930790	0.70261270
0.930884	0.70198880
0.930978	0.70137480
0.931073	0.70057060
0.931167	0.69971750
0.931261	0.69886220
0.931356	0.69800160
0.931450	0.69714760
0.931543	0.69629820
0.931638	0.69543400
0.931732	0.69457900
0.931826	0.69373080
0.931921	0.69287080
0.932015	0.69209750
0.932109	0.69173610
0.932204	0.69137810
0.932298	0.69101970
0.932392	0.69065890
0.932487	0.69029890
0.932581	0.68993890
0.932675	0.68957790
0.932769	0.68921860
0.932864	0.68885880
0.932959	0.68849360
0.933052	0.68813920
0.933147	0.68778630
0.933242	0.68743810
0.933336	0.68709240
0.933431	0.68674060
0.933525	0.68639040
0.933619	0.68603630
0.933714	0.68568050
0.933808	0.68532960
0.933903	0.68497870
0.933997	0.68462650
0.934091	0.68397310
0.934187	0.68330410
0.934281	0.68264320
0.934375	0.68198380
0.934470	0.68131440
0.934564	0.68065480
0.934659	0.67999330
0.934754	0.67932560
0.934848	0.67866040
0.934942	0.67799760
0.935038	0.67734580
0.935132	0.67671610
0.935226	0.67608970
0.935321	0.67545760
0.935415	0.67483040
0.935511	0.67419190
0.935605	0.67356340
0.935699	0.67293450
0.935794	0.67230080
0.935889	0.67167100
0.935983	0.67103870
0.936078	0.67059290
0.936173	0.67018810
0.936268	0.66978070
0.936363	0.66937320
0.936457	0.66896640
0.936552	0.66855920
0.936647	0.66815270
0.936741	0.66774610
0.936837	0.66733280
0.936931	0.66692490
0.937026	0.66643490
0.937121	0.66571650
0.937215	0.66500170
0.937311	0.66428550
0.937405	0.66357010
0.937500	0.66286100
0.937595	0.66213870
0.937690	0.66142880
0.937785	0.66071330
0.937879	0.66000300
0.937974	0.65928840
0.938069	0.65876180
0.938164	0.65830510
0.938259	0.65784870
0.938354	0.65739090
0.938449	0.65693390
0.938544	0.65647460
0.938639	0.65601780
0.938734	0.65556140
0.938829	0.65510090
0.938924	0.65463900
0.939019	0.65408050
0.939114	0.65312360
0.939209	0.65216410
0.939304	0.65120410
0.939399	0.65024210
0.939494	0.64928420
0.939589	0.64832580
0.939684	0.64736670
0.939779	0.64640820
0.939874	0.64545040
0.939969	0.64448940
0.940065	0.64385780
0.940159	0.64337580
0.940255	0.64289220
0.940350	0.64241150
0.940445	0.64192830
0.940540	0.64144530
0.940635	0.64096270
0.940731	0.64047560
0.940825	0.63998930
0.940920	0.63950370
0.941016	0.63893240
0.941111	0.63795870
0.941206	0.63697800
0.941302	0.63599490
0.941397	0.63502530
0.941492	0.63404790
0.941588	0.63306750
0.941683	0.63209480
0.941778	0.63112060
0.941873	0.63014700
0.941968	0.62917500
0.942064	0.62848430
0.942159	0.62793840
0.942254	0.62739140
0.942350	0.62684210
0.942445	0.62629570
0.942540	0.62574790
0.942636	0.62519910
0.942731	0.62464910
0.942827	0.62409700
0.942922	0.62355130
0.943017	0.62295990
0.943113	0.62221260
0.943208	0.62146220
0.943303	0.62071460
0.943399	0.61995740
0.943494	0.61921340
0.943590	0.61846190
0.943685	0.61770330
0.943781	0.61695460
0.943877	0.61620120
0.943972	0.61545220
0.944067	0.61480610
0.944163	0.61419950
0.944259	0.61359760
0.944354	0.61299520
0.944449	0.61238950
0.944545	0.61178550
0.944640	0.61118140
0.944736	0.61057190
0.944832	0.60996920
0.944928	0.60936110
0.945023	0.60865620
0.945119	0.60764670
0.945215	0.60662940
0.945310	0.60562440
0.945406	0.60461500
0.945502	0.60360410
0.945597	0.60259680
0.945692	0.60159890
0.945788	0.60058250
0.945884	0.59958420
0.945980	0.59857430
0.946075	0.59787350
0.946171	0.59725390
0.946267	0.59663230
0.946362	0.59601600
0.946458	0.59539550
0.946554	0.59477270
0.946649	0.59415780
0.946745	0.59353740
0.946842	0.59290970
0.946937	0.59228870
0.947033	0.59165010
0.947129	0.59097290
0.947224	0.59029260
0.947320	0.58960680
0.947416	0.58893040
0.947512	0.58825010
0.947608	0.58756770
0.947704	0.58688790
0.947800	0.58620580
0.947896	0.58552650
0.947991	0.58484720
0.948088	0.58415410
0.948183	0.58346500
0.948279	0.58277830
0.948375	0.58208310
0.948471	0.58139170
0.948567	0.58070070
0.948663	0.58000720
0.948759	0.57931880
0.948855	0.57862780
0.948951	0.57793170
0.949047	0.57714010
0.949143	0.57623890
0.949239	0.57534860
0.949335	0.57445280
0.949432	0.57354640
0.949527	0.57265560
0.949623	0.57176480
0.949719	0.57086470
0.949815	0.56996970
0.949911	0.56907750
0.950008	0.56817890
0.950104	0.56729510
0.950200	0.56640480
0.950296	0.56551670
0.950392	0.56463320
0.950489	0.56374540
0.950584	0.56286850
0.950680	0.56198180
0.950777	0.56109260
0.950873	0.56021210
0.950969	0.55933090
0.951066	0.55845680
0.951162	0.55759050
0.951258	0.55671990
0.951354	0.55585450
0.951450	0.55498940
0.951547	0.55412010
0.951643	0.55325590
0.951739	0.55239200
0.951835	0.55152950
0.951932	0.55066660
0.952028	0.54980080
0.952125	0.54890430
0.952221	0.54801760
0.952317	0.54712550
0.952414	0.54624160
0.952510	0.54536270
0.952607	0.54446830
0.952703	0.54358640
0.952799	0.54270090
0.952896	0.54181590
0.952992	0.54093430
0.953088	0.54006740
0.953185	0.53920430
0.953281	0.53833920
0.953378	0.53747760
0.953474	0.53661570
0.953570	0.53575660
0.953667	0.53489160
0.953764	0.53403120
0.953860	0.53316900
0.953957	0.53230680
0.954053	0.53160640
0.954149	0.53103630
0.954246	0.53046430
0.954343	0.52989220
0.954439	0.52932140
0.954535	0.52875070
0.954632	0.52817790
0.954729	0.52760350
0.954825	0.52703210
0.954922	0.52645670
0.955019	0.52588800
0.955115	0.52535690
0.955212	0.52482480
0.955309	0.52428940
0.955405	0.52375310
0.955502	0.52321530
0.955599	0.52268140
0.955695	0.52214530
0.955792	0.52160990
0.955889	0.52107650
0.955985	0.52053300
0.956082	0.51997170
0.956179	0.51941400
0.956275	0.51885270
0.956373	0.51828770
0.956469	0.51772600
0.956566	0.51715980
0.956663	0.51659320
0.956759	0.51603000
0.956857	0.51546340
0.956953	0.51489950
0.957050	0.51433900
0.957147	0.51378440
0.957243	0.51323200
0.957340	0.51267590
0.957437	0.51211690
0.957534	0.51156240
0.957631	0.51100490
0.957728	0.51044750
0.957825	0.50989250
0.957922	0.50932990
0.958019	0.50871910
0.958116	0.50789180
0.958213	0.50705900
0.958310	0.50622790
0.958406	0.50540480
0.958503	0.50457650
0.958600	0.50374660
0.958697	0.50291830
0.958794	0.50209050
0.958891	0.50126230
0.958989	0.50043190
0.959085	0.49966780
0.959182	0.49891400
0.959280	0.49815340
0.959377	0.49739670
0.959473	0.49664570
0.959571	0.49588270
0.959667	0.49513310
0.959764	0.49437620
0.959862	0.49361680
0.959959	0.49286270
0.960056	0.49210950
0.960153	0.49136960
0.960250	0.49063380
0.960348	0.48989080
0.960445	0.48915290
0.960542	0.48841500
0.960639	0.48767010
0.960736	0.48693540
0.960833	0.48619830
0.960931	0.48545610
0.961028	0.48471480
0.961125	0.48394590
0.961222	0.48317920
0.961319	0.48241760
0.961417	0.48164470
0.961514	0.48088360
0.961611	0.48011800
0.961709	0.47935250
0.961806	0.47858670
0.961903	0.47782230
0.962001	0.47705540
0.962098	0.47638210
0.962196	0.47568990
0.962293	0.47501490
0.962390	0.47433250
0.962488	0.47364670
0.962585	0.47296720
0.962682	0.47228560
0.962780	0.47159900
0.962877	0.47092170
0.962974	0.47023840
0.963072	0.46957470
0.963169	0.46892150
0.963267	0.46826680
0.963365	0.46761730
0.963461	0.46696660
0.963560	0.46630820
0.963656	0.46566150
0.963754	0.46500800
0.963852	0.46435240
0.963949	0.46369950
0.964047	0.46302710
0.964144	0.46233620
0.964242	0.46164900
0.964340	0.46095650
0.964437	0.46026850
0.964535	0.45958090
0.964633	0.45888710
0.964729	0.45820500
0.964827	0.45751820
0.964925	0.45682230
0.965022	0.45614400
0.965120	0.45549780
0.965218	0.45485170
0.965315	0.45420830
0.965413	0.45355890
0.965511	0.45291480
0.965608	0.45227230
0.965707	0.45161850
0.965804	0.45097490
0.965902	0.45033110
0.966000	0.44967860
0.966097	0.44890760
0.966194	0.44813440
0.966292	0.44735690
0.966390	0.44658350
0.966488	0.44580350
0.966586	0.44503140
0.966684	0.44426010
0.966782	0.44348270
0.966879	0.44271290
0.966977	0.44194400
0.967075	0.44116370
0.967173	0.44039180
0.967271	0.43962110
0.967368	0.43884750
0.967466	0.43807660
0.967564	0.43730120
0.967662	0.43652910
0.967760	0.43575820
0.967858	0.43498170
0.967956	0.43421020
0.968054	0.43344870
0.968152	0.43268320
0.968250	0.43192390
0.968348	0.43116760
0.968446	0.43040350
0.968544	0.42964290
0.968642	0.42888570
0.968740	0.42812920
0.968837	0.42737020
0.968936	0.42661090
0.969034	0.42585450
0.969132	0.42510940
0.969230	0.42436140
0.969328	0.42361580
0.969426	0.42287070
0.969524	0.42212380
0.969622	0.42137620
0.969721	0.42062960
0.969819	0.41988530
0.969917	0.41914080
0.970015	0.41841040
0.970113	0.41776020
0.970210	0.41710810
0.970309	0.41645420
0.970407	0.41580310
0.970505	0.41515400
0.970604	0.41449860
0.970702	0.41384850
0.970800	0.41318910
0.970898	0.41254080
0.970997	0.41188700
0.971095	0.41121220
0.971193	0.41053730
0.971291	0.40986250
0.971390	0.40918920
0.971488	0.40851090
0.971586	0.40784080
0.971684	0.40715960
0.971783	0.40648610
0.971881	0.40580760
0.971979	0.40513420
0.972078	0.40447070
0.972176	0.40380850
0.972275	0.40314630
0.972373	0.40248940
0.972472	0.40182600
0.972570	0.40116500
0.972668	0.40050610
0.972766	0.39984710
0.972865	0.39918650
0.972963	0.39852410
0.973062	0.39785950
0.973160	0.39719420
0.973259	0.39652810
0.973357	0.39586420
0.973455	0.39519950
0.973554	0.39453020
0.973653	0.39386460
0.973751	0.39319990
0.973850	0.39253070
0.973948	0.39186510
0.974047	0.39117520
0.974145	0.39045620
0.974243	0.38973560
0.974342	0.38901450
0.974441	0.38829410
0.974539	0.38757300
0.974638	0.38684970
0.974737	0.38613000
0.974835	0.38541250
0.974934	0.38468950
0.975033	0.38397350
0.975132	0.38326150
0.975230	0.38255170
0.975329	0.38184120
0.975427	0.38112710
0.975526	0.38041920
0.975624	0.37971150
0.975723	0.37899610
0.975822	0.37828670
0.975920	0.37757710
0.976020	0.37686480
0.976118	0.37616190
0.976217	0.37544970
0.976316	0.37474500
0.976415	0.37403980
0.976514	0.37332880
0.976612	0.37262720
0.976710	0.37192410
0.976810	0.37121630
0.976908	0.37050780
0.977007	0.36980060
0.977106	0.36905430
0.977205	0.36831160
0.977304	0.36756640
0.977403	0.36682500
0.977502	0.36607940
0.977601	0.36533190
0.977700	0.36458850
0.977799	0.36384790
0.977898	0.36310270
0.977997	0.36236370
0.978095	0.36171000
0.978194	0.36106420
0.978293	0.36040940
0.978392	0.35976080
0.978491	0.35910580
0.978590	0.35845880
0.978690	0.35780330
0.978788	0.35715530
0.978887	0.35650040
0.978987	0.35585180
0.979085	0.35519000
0.979184	0.35452630
0.979283	0.35385620
0.979382	0.35319350
0.979481	0.35252490
0.979581	0.35185900
0.979680	0.35119440
0.979779	0.35052650
0.979878	0.34986060
0.979977	0.34919290
0.980077	0.34873060
0.980176	0.34833210
0.980275	0.34793330
0.980374	0.34753430
0.980473	0.34713750
0.980572	0.34673790
0.980671	0.34633750
0.980770	0.34593620
0.980870	0.34553060
0.980969	0.34513060
0.981068	0.34473500
0.981168	0.34433690
0.981267	0.34394140
0.981366	0.34354640
0.981466	0.34314880
0.981565	0.34275330
0.981664	0.34235750
0.981763	0.34195750
0.981862	0.34156070
0.981962	0.34116230
0.982061	0.34070100
0.982160	0.34019800
0.982260	0.33969270
0.982360	0.33918970
0.982459	0.33868550
0.982559	0.33818160
0.982658	0.33767950
0.982757	0.33717640
0.982857	0.33666890
0.982956	0.33616340
0.983056	0.33565340
0.983155	0.33514450
0.983254	0.33463020
0.983354	0.33411440
0.983453	0.33359990
0.983553	0.33308580
0.983652	0.33257120
0.983752	0.33205920
0.983851	0.33154470
0.983951	0.33102470
0.984051	0.33050820
0.984151	0.32998680
0.984250	0.32946440
0.984349	0.32894350
0.984449	0.32842390
0.984548	0.32790160
0.984648	0.32737890
0.984748	0.32685740
0.984847	0.32633640
0.984947	0.32581260
0.985047	0.32529410
0.985146	0.32478530
0.985246	0.32427530
0.985346	0.32376660
0.985445	0.32325450
0.985545	0.32274230
0.985645	0.32223370
0.985745	0.32172160
0.985844	0.32121110
0.985944	0.32070170
0.986043	0.32022210
0.986143	0.31977810
0.986243	0.31933670
0.986343	0.31889210
0.986443	0.31844710
0.986543	0.31800540
0.986643	0.31755980
0.986742	0.31711560
0.986842	0.31667220
0.986942	0.31622380
0.987042	0.31578160
0.987141	0.31534820
0.987242	0.31491080
0.987341	0.31447360
0.987442	0.31403140
0.987541	0.31359430
0.987641	0.31315700
0.987741	0.31271680
0.987841	0.31227900
0.987941	0.31183870
0.988041	0.31138430
0.988141	0.31091690
0.988241	0.31044400
0.988341	0.30996710
0.988441	0.30949720
0.988541	0.30902830
0.988641	0.30855740
0.988741	0.30808370
0.988841	0.30760820
0.988941	0.30713420
0.989041	0.30668500
0.989141	0.30626200
0.989241	0.30583710
0.989341	0.30541500
0.989442	0.30498790
0.989542	0.30456270
0.989642	0.30413890
0.989742	0.30371520
0.989842	0.30329480
0.989942	0.30286640
0.990042	0.30239390
0.990142	0.30186530
0.990243	0.30132970
0.990343	0.30079580
0.990443	0.30026570
0.990543	0.29973130
0.990643	0.29919910
0.990744	0.29866470
0.990844	0.29813250
0.990944	0.29760080
0.991045	0.29707580
0.991145	0.29656630
0.991244	0.29606140
0.991345	0.29554950
0.991445	0.29503960
0.991545	0.29453180
0.991646	0.29401950
0.991746	0.29351210
0.991847	0.29300090
0.991947	0.29248940
0.992048	0.29197940
0.992148	0.29146490
0.992248	0.29095450
0.992349	0.29044570
0.992449	0.28993480
0.992549	0.28942450
0.992649	0.28891220
0.992750	0.28839720
0.992850	0.28788760
0.992951	0.28737340
0.993052	0.28685500
0.993152	0.28632980
0.993253	0.28580010
0.993353	0.28527290
0.993453	0.28474650
0.993554	0.28421660
0.993655	0.28369110
0.993755	0.28316970
0.993856	0.28263460
0.993956	0.28210950
0.994057	0.28163420
0.994157	0.28119940
0.994258	0.28076500
0.994359	0.28032970
0.994459	0.27989710
0.994560	0.27946200
0.994661	0.27902330
0.994761	0.27858820
0.994862	0.27815020
0.994963	0.27771080
0.995063	0.27726480
0.995164	0.27680790
0.995264	0.27635450
0.995365	0.27590070
0.995466	0.27544220
0.995566	0.27498390
0.995667	0.27452690
0.995768	0.27406790
0.995869	0.27361100
0.995969	0.27315390
0.996070	0.27270280
0.996171	0.27225630
0.996272	0.27180860
0.996372	0.27136180
0.996473	0.27091540
0.996574	0.27046450
0.996675	0.27001490
0.996776	0.26956670
0.996877	0.26911470
0.996977	0.26866540
0.997078	0.26821200
0.997180	0.26775210
0.997280	0.26729610
0.997381	0.26683980
0.997482	0.26637860
0.997583	0.26591920
0.997684	0.26545870
0.997785	0.26499930
0.997885	0.26454240
0.997987	0.26407950
0.998088	0.26354380
0.998188	0.26300080
0.998290	0.26244870
0.998391	0.26190110
0.998491	0.26135620
0.998593	0.26080570
0.998694	0.26025820
0.998795	0.25970970
0.998896	0.25915940
0.998997	0.25860930
0.999098	0.25807370
0.999199	0.25753030
0.999300	0.25698980
0.999401	0.25645090
0.999502	0.25590700
0.999603	0.25536900
0.999705	0.25482710
0.999806	0.25428350
0.999907	0.25373770
1.000008	0.25321120
1.000109	0.25279730
1.000211	0.25237700
1.000312	0.25196160
1.000413	0.25154810
1.000514	0.25113240
1.000615	0.25071880
1.000716	0.25030390
1.000818	0.24988460
1.000919	0.24946980
1.001021	0.24905360
1.001122	0.24863060
1.001223	0.24820830
1.001324	0.24778530
1.001425	0.24736270
1.001526	0.24694020
1.001629	0.24651320
1.001730	0.24609010
1.001831	0.24566730
1.001932	0.24524460
1.002033	0.24484780
1.002136	0.24450080
1.002237	0.24415800
1.002338	0.24381420
1.002439	0.24347030
1.002541	0.24312630
1.002642	0.24278190
1.002743	0.24243700
1.002844	0.24209200
1.002946	0.24174700
1.003048	0.24139330
1.003150	0.24103730
1.003251	0.24068100
1.003352	0.24032490
1.003454	0.23996830
1.003556	0.23960730
1.003657	0.23925010
1.003758	0.23889670
1.003860	0.23853530
1.003962	0.23817750
1.004063	0.23782080
1.004164	0.23746450
1.004266	0.23710850
1.004368	0.23674800
1.004470	0.23639140
1.004571	0.23603430
1.004673	0.23567680
1.004774	0.23531890
1.004876	0.23496110
1.004978	0.23459900
1.005080	0.23423830
1.005180	0.23388100
1.005283	0.23351530
1.005385	0.23315300
1.005486	0.23279110
1.005588	0.23242880
1.005689	0.23206600
1.005792	0.23169880
1.005894	0.23133590
1.005995	0.23097180
1.006097	0.23056000
1.006198	0.23014560
1.006300	0.22973100
1.006403	0.22931150
1.006503	0.22890120
1.006606	0.22848190
1.006708	0.22806660
1.006810	0.22765170
1.006911	0.22723610
1.007013	0.22682130
1.007115	0.22641000
1.007218	0.22599430
1.007319	0.22558270
1.007421	0.22517120
1.007523	0.22475930
1.007625	0.22434750
1.007727	0.22393130
1.007829	0.22351890
1.007930	0.22311130
1.008033	0.22269330
1.008135	0.22227690
1.008237	0.22186080
1.008338	0.22144430
1.008440	0.22102750
1.008542	0.22061090
1.008645	0.22018990
1.008747	0.21977290
1.008849	0.21935640
1.008951	0.21893930
1.009053	0.21852670
1.009155	0.21811820
1.009257	0.21770970
1.009359	0.21730080
1.009462	0.21688760
1.009564	0.21647810
1.009666	0.21606890
1.009768	0.21565980
1.009870	0.21525010
1.009973	0.21483580
1.010075	0.21444690
1.010177	0.21406540
1.010279	0.21368350
1.010381	0.21330140
1.010483	0.21291880
1.010585	0.21253620
1.010687	0.21215350
1.010789	0.21177000
1.010892	0.21138280
1.010995	0.21099960
1.011097	0.21063820
1.011199	0.21027780
1.011301	0.20991730
1.011404	0.20955200
1.011506	0.20919090
1.011609	0.20882930
1.011711	0.20846780
1.011813	0.20810530
1.011915	0.20774240
1.012017	0.20737660
1.012120	0.20699570
1.012223	0.20660990
1.012325	0.20622860
1.012428	0.20584680
1.012530	0.20546500
1.012632	0.20508310
1.012734	0.20470020
1.012838	0.20431340
1.012940	0.20393000
1.013042	0.20355260
1.013145	0.20318260
1.013247	0.20281230
1.013349	0.20244160
1.013452	0.20207010
1.013554	0.20169870
1.013658	0.20132300
1.013760	0.20095120
1.013862	0.20057850
1.013965	0.20020570
1.014067	0.19978750
1.014170	0.19934580
1.014273	0.19889950
1.014376	0.19845780
1.014478	0.19801540
1.014581	0.19757390
1.014683	0.19713210
1.014786	0.19668980
1.014888	0.19624760
1.014991	0.19580520
1.015094	0.19535600
1.015197	0.19491130
1.015300	0.19446640
1.015402	0.19402180
1.015505	0.19357630
1.015607	0.19313160
1.015711	0.19268180
1.015814	0.19223670
1.015916	0.19179140
1.016019	0.19134660
1.016121	0.19090070
1.016224	0.19045470
1.016327	0.19000920
1.016429	0.18956350
1.016533	0.18911280
1.016636	0.18866760
1.016739	0.18822160
1.016841	0.18777550
1.016944	0.18732970
1.017048	0.18688860
1.017151	0.18646260
1.017253	0.18603630
1.017356	0.18561040
1.017459	0.18518400
1.017562	0.18475790
1.017664	0.18433090
1.017767	0.18390400
1.017870	0.18347760
1.017974	0.18304610
1.018077	0.18263120
1.018180	0.18222050
1.018283	0.18180950
1.018385	0.18139860
1.018489	0.18098300
1.018592	0.18057160
1.018695	0.18016000
1.018798	0.17974810
1.018901	0.17933610
1.019004	0.17892420
1.019107	0.17851530
1.019210	0.17810660
1.019314	0.17769310
1.019417	0.17728380
1.019520	0.17687430
1.019623	0.17646440
1.019726	0.17605460
1.019829	0.17564470
1.019933	0.17523000
1.020036	0.17486050
1.020139	0.17456880
1.020242	0.17427700
1.020345	0.17398490
1.020448	0.17369230
1.020551	0.17340000
1.020654	0.17310710
1.020759	0.17281120
1.020862	0.17251830
1.020965	0.17222530
1.021068	0.17193790
1.021171	0.17165270
1.021274	0.17136720
1.021379	0.17107920
1.021482	0.17079350
1.021585	0.17050740
1.021688	0.17022180
1.021791	0.16993580
1.021895	0.16964980
1.021998	0.16936310
1.022101	0.16904310
1.022205	0.16871970
1.022309	0.16839920
1.022412	0.16807890
1.022515	0.16775850
1.022619	0.16743790
1.022723	0.16711370
1.022826	0.16679310
1.022930	0.16647230
1.023033	0.16615780
1.023136	0.16585720
1.023240	0.16555660
1.023343	0.16525600
1.023446	0.16495450
1.023550	0.16465370
1.023654	0.16434890
1.023758	0.16404770
1.023861	0.16374610
1.023964	0.16344380
1.024068	0.16314430
1.024173	0.16284290
1.024276	0.16254410
1.024379	0.16224520
1.024483	0.16194650
1.024586	0.16164720
1.024690	0.16134770
1.024793	0.16104850
1.024897	0.16074850
1.025002	0.16044600
1.025105	0.16013180
1.025209	0.15981770
1.025312	0.15950340
1.025416	0.15918890
1.025519	0.15887440
1.025624	0.15855650
1.025727	0.15824480
1.025830	0.15793010
1.025935	0.15761200
1.026039	0.15729410
1.026142	0.15697120
1.026246	0.15664830
1.026350	0.15632520
1.026454	0.15599870
1.026558	0.15567550
1.026662	0.15535220
1.026766	0.15502890
1.026869	0.15470480
1.026973	0.15438130
1.027078	0.15407030
1.027180	0.15377140
1.027285	0.15346590
1.027389	0.15316320
1.027493	0.15286110
1.027597	0.15255810
1.027700	0.15225520
1.027804	0.15195190
1.027909	0.15164510
1.028013	0.15133950
1.028117	0.15101840
1.028221	0.15069750
1.028325	0.15037650
1.028430	0.15005200
1.028532	0.14973410
1.028636	0.14941250
1.028741	0.14908710
1.028845	0.14876570
1.028949	0.14844420
1.029053	0.14812960
1.029157	0.14782200
1.029261	0.14751400
1.029366	0.14720290
1.029470	0.14689500
1.029574	0.14658660
1.029678	0.14627780
1.029782	0.14596950
1.029886	0.14566060
1.029990	0.14535180
1.030094	0.14503760
1.030200	0.14472000
1.030304	0.14440470
1.030408	0.14409010
1.030512	0.14377480
1.030616	0.14345970
1.030721	0.14314060
1.030825	0.14282520
1.030929	0.14250940
1.031033	0.14219330
1.031138	0.14187770
1.031242	0.14156140
1.031346	0.14124520
1.031450	0.14092900
1.031554	0.14061240
1.031660	0.14029230
1.031764	0.13997580
1.031868	0.13965860
1.031972	0.13934110
1.032077	0.13902840
1.032182	0.13871350
1.032286	0.13840220
1.032391	0.13809000
1.032495	0.13777830
1.032599	0.13746580
1.032703	0.13715370
1.032808	0.13684100
1.032912	0.13652780
1.033016	0.13621340
1.033122	0.13588510
1.033226	0.13556030
1.033331	0.13523560
1.033435	0.13491030
1.033539	0.13458520
1.033645	0.13425700
1.033749	0.13393140
1.033854	0.13360610
1.033958	0.13328050
1.034063	0.13296250
1.034167	0.13264940
1.034272	0.13233660
1.034376	0.13202320
1.034482	0.13170660
1.034586	0.13139250
1.034691	0.13107890
1.034795	0.13076470
1.034900	0.13045050
1.035004	0.13013570
1.035110	0.12980370
1.035215	0.12947520
1.035318	0.12915010
1.035424	0.12881800
1.035528	0.12848910
1.035633	0.12816010
1.035738	0.12783090
1.035842	0.12750160
1.035948	0.12716870
1.036053	0.12684940
1.036157	0.12653980
1.036262	0.12623030
1.036367	0.12592040
1.036471	0.12561000
1.036577	0.12529630
1.036682	0.12498570
1.036787	0.12467520
1.036891	0.12436390
1.036996	0.12405290
1.037101	0.12372190
1.037206	0.12339040
1.037310	0.12305890
1.037416	0.12272290
1.037521	0.12239070
1.037626	0.12205860
1.037731	0.12172580
1.037836	0.12139330
1.037942	0.12105750
1.038046	0.12072410
1.038150	0.12039410
1.038256	0.12005710
1.038361	0.11972360
1.038466	0.11938940
1.038571	0.11905540
1.038676	0.11872140
1.038781	0.11838700
1.038887	0.11804890
1.038992	0.11771470
1.039097	0.11736540
1.039202	0.11701490
1.039307	0.11666450
1.039413	0.11631060
1.039518	0.11595980
1.039622	0.11561300
1.039728	0.11525840
1.039833	0.11490850
1.039938	0.11455770
1.040043	0.11424850
1.040148	0.11399990
1.040254	0.11374840
1.040359	0.11349970
1.040464	0.11325090
1.040569	0.11300200
1.040675	0.11275290
1.040780	0.11250400
1.040885	0.11225460
1.040990	0.11200530
1.041095	0.11175270
1.041201	0.11149630
1.041307	0.11124290
1.041412	0.11098940
1.041517	0.11073600
1.041622	0.11048250
1.041729	0.11022650
1.041834	0.10997260
1.041939	0.10971880
1.042044	0.10947310
1.042150	0.10923860
1.042255	0.10900380
1.042360	0.10876850
1.042465	0.10853320
1.042572	0.10829570
1.042677	0.10806040
1.042782	0.10782480
1.042888	0.10758950
1.042993	0.10735330
1.043099	0.10710960
1.043205	0.10686200
1.043310	0.10661690
1.043416	0.10637220
1.043521	0.10612710
1.043627	0.10588210
1.043732	0.10563680
1.043838	0.10539150
1.043943	0.10514590
1.044050	0.10490530
1.044155	0.10467570
1.044260	0.10444600
1.044366	0.10421610
1.044471	0.10398570
1.044577	0.10375550
1.044684	0.10352280
1.044789	0.10329200
1.044895	0.10306140
1.045000	0.10283000
1.045106	0.10258490
1.045211	0.10233950
1.045317	0.10209410
1.045423	0.10184840
1.045529	0.10160020
1.045635	0.10135470
1.045741	0.10110850
1.045846	0.10086280
1.045952	0.10061660
1.046059	0.10036160
1.046164	0.10010450
1.046270	0.09984760
1.046376	0.09959050
1.046481	0.09933290
1.046587	0.09907620
1.046693	0.09881860
1.046799	0.09856140
1.046904	0.09830390
1.047011	0.09804380
1.047117	0.09778540
1.047223	0.09752720
1.047329	0.09726820
1.047434	0.09700940
1.047541	0.09674800
1.047647	0.09648930
1.047753	0.09623070
1.047859	0.09597180
1.047965	0.09571320
1.048071	0.09544740
1.048176	0.09517820
1.048282	0.09490830
1.048389	0.09463600
1.048495	0.09436670
1.048601	0.09409710
1.048707	0.09382780
1.048813	0.09355840
1.048919	0.09328930
1.049026	0.09302040
1.049132	0.09276600
1.049238	0.09251180
1.049344	0.09225750
1.049450	0.09200300
1.049556	0.09174860
1.049662	0.09149380
1.049768	0.09123890
1.049875	0.09098130
1.049981	0.09072630
1.050087	0.09047530
1.050193	0.09022460
1.050300	0.08997390
1.050406	0.08972310
1.050513	0.08946940
1.050619	0.08921830
1.050725	0.08896710
1.050831	0.08871610
1.050938	0.08846460
1.051044	0.08821490
1.051150	0.08796760
1.051256	0.08772030
1.051363	0.08746990
1.051470	0.08722230
1.051576	0.08697440
1.051682	0.08672640
1.051788	0.08647820
1.051895	0.08623010
1.052002	0.08597940
1.052108	0.08572760
1.052214	0.08547680
1.052321	0.08522560
1.052427	0.08497390
1.052533	0.08472210
1.052640	0.08447040
1.052746	0.08421860
1.052854	0.08396430
1.052960	0.08371210
1.053066	0.08345550
1.053173	0.08319540
1.053279	0.08293600
1.053387	0.08267340
1.053493	0.08241350
1.053599	0.08215360
1.053706	0.08189320
1.053812	0.08163380
1.053919	0.08137340
1.054025	0.08111280
1.054132	0.08084980
1.054238	0.08058640
1.054346	0.08032060
1.054452	0.08005740
1.054559	0.07979450
1.054665	0.07953100
1.054772	0.07926760
1.054880	0.07900150
1.054986	0.07873840
1.055093	0.07848560
1.055199	0.07823380
1.055306	0.07798270
1.055412	0.07773150
1.055519	0.07747980
1.055626	0.07722790
1.055734	0.07697360
1.055840	0.07672150
1.055947	0.07646930
1.056054	0.07621760
1.056160	0.07596590
1.056267	0.07571420
1.056375	0.07545950
1.056481	0.07520770
1.056587	0.07495830
1.056695	0.07470350
1.056802	0.07445110
1.056908	0.07419860
1.057015	0.07394400
1.057122	0.07368110
1.057230	0.07341540
1.057337	0.07315200
1.057444	0.07288840
1.057550	0.07262490
1.057657	0.07236150
1.057764	0.07209820
1.057872	0.07183170
1.057979	0.07156810
1.058086	0.07130700
1.058193	0.07104680
1.058300	0.07078660
1.058406	0.07052530
1.058513	0.07026500
1.058620	0.07000410
1.058728	0.06974020
1.058835	0.06947960
1.058942	0.06921890
1.059049	0.06895940
1.059156	0.06870240
1.059264	0.06844250
1.059370	0.06818810
1.059477	0.06793110
1.059585	0.06767040
1.059692	0.06741300
1.059800	0.06715530
1.059907	0.06689750
1.060014	0.06664930
1.060121	0.06646590
1.060229	0.06628050
1.060336	0.06609670
1.060443	0.06591280
1.060550	0.06572900
1.060658	0.06554510
1.060766	0.06535880
1.060872	0.06517680
1.060979	0.06499230
1.061087	0.06480030
1.061194	0.06460970
1.061302	0.06441830
1.061409	0.06422750
1.061516	0.06403600
1.061625	0.06384230
1.061732	0.06365110
1.061839	0.06345950
1.061946	0.06326780
1.062054	0.06307960
1.062161	0.06289400
1.062268	0.06270840
1.062375	0.06252250
1.062483	0.06233670
1.062591	0.06214910
1.062699	0.06196270
1.062806	0.06177710
1.062913	0.06159060
1.063021	0.06140370
1.063129	0.06121290
1.063237	0.06102410
1.063344	0.06083480
1.063451	0.06064550
1.063559	0.06045620
1.063666	0.06026690
1.063774	0.06007790
1.063881	0.05988840
1.063990	0.05969710
1.064097	0.05950740
1.064205	0.05931780
1.064312	0.05912780
1.064420	0.05893830
1.064527	0.05874830
1.064636	0.05855650
1.064744	0.05836640
1.064851	0.05817640
1.064959	0.05798600
1.065066	0.05779550
1.065174	0.05760450
1.065282	0.05741280
1.065389	0.05722150
1.065498	0.05702840
1.065606	0.05683670
1.065713	0.05664550
1.065821	0.05645360
1.065929	0.05626220
1.066036	0.05607050
1.066145	0.05587780
1.066253	0.05568670
1.066360	0.05549570
1.066468	0.05530460
1.066576	0.05511310
1.066684	0.05492160
1.066791	0.05473070
1.066899	0.05453860
1.067008	0.05434590
1.067116	0.05415610
1.067224	0.05396660
1.067332	0.05377650
1.067439	0.05358670
1.067548	0.05339480
1.067656	0.05320490
1.067764	0.05301450
1.067872	0.05282450
1.067980	0.05263420
1.068088	0.05244050
1.068196	0.05224520
1.068303	0.05205020
1.068411	0.05185480
1.068521	0.05165740
1.068628	0.05146270
1.068736	0.05126720
1.068844	0.05107190
1.068952	0.05087670
1.069061	0.05068050
1.069169	0.05048700
1.069277	0.05029380
1.069385	0.05010000
1.069493	0.04990670
1.069602	0.04971320
1.069710	0.04951940
1.069818	0.04932590
1.069926	0.04913210
1.070035	0.04893590
1.070143	0.04874120
1.070251	0.04854670
1.070359	0.04835190
1.070467	0.04815730
1.070577	0.04796040
1.070685	0.04776510
1.070792	0.04757270
1.070901	0.04737560
1.071009	0.04718000
1.071118	0.04698010
1.071226	0.04677940
1.071334	0.04657920
1.071443	0.04637700
1.071552	0.04617690
1.071660	0.04597650
1.071768	0.04577620
1.071876	0.04557560
1.071985	0.04537570
1.072094	0.04517800
1.072202	0.04498300
1.072310	0.04479050
1.072419	0.04459360
1.072527	0.04439850
1.072636	0.04420370
1.072744	0.04400840
1.072852	0.04381320
1.072962	0.04361600
1.073070	0.04342070
1.073179	0.04322550
1.073287	0.04303030
1.073396	0.04283540
1.073504	0.04263990
1.073614	0.04244210
1.073721	0.04224880
1.073831	0.04205080
1.073939	0.04185530
1.074048	0.04165820
1.074156	0.04145940
1.074265	0.04126050
1.074373	0.04106170
1.074483	0.04086040
1.074591	0.04066150
1.074700	0.04046250
1.074808	0.04026340
1.074917	0.04006440
1.075027	0.03986460
1.075134	0.03967400
1.075243	0.03948100
1.075353	0.03928590
1.075461	0.03909280
1.075570	0.03889980
1.075679	0.03870620
1.075787	0.03851330
1.075896	0.03831950
1.076006	0.03812360
1.076114	0.03792380
1.076223	0.03772410
1.076332	0.03752430
1.076441	0.03732480
1.076550	0.03712270
1.076658	0.03692520
1.076767	0.03672510
1.076877	0.03652290
1.076986	0.03632300
1.077094	0.03612450
1.077203	0.03592680
1.077312	0.03572860
1.077422	0.03552840
1.077531	0.03532990
1.077640	0.03513150
1.077749	0.03493310
1.077857	0.03473450
1.077966	0.03453610
1.078075	0.03433880
1.078184	0.03414230
1.078293	0.03394560
1.078403	0.03374710
1.078512	0.03355030
1.078621	0.03335360
1.078730	0.03315670
1.078839	0.03295970
1.078949	0.03276010
1.079058	0.03256280
1.079167	0.03236490
1.079276	0.03216710
1.079385	0.03196910
1.079494	0.03177160
1.079603	0.03157320
1.079712	0.03137480
1.079822	0.03117450
1.079932	0.03097630
1.080041	0.03068950
1.080150	0.03025610
1.080259	0.02982560
1.080368	0.02939760
1.080478	0.02896830
1.080588	0.02854580
1.080697	0.02812640
1.080806	0.02771010
1.080915	0.02729640
1.081024	0.02688490
1.081133	0.02647530
1.081243	0.02606860
1.081353	0.02565980
1.081462	0.02525890
1.081571	0.02486040
1.081681	0.02446500
1.081790	0.02407250
1.081899	0.02368260
1.082010	0.02329210
1.082119	0.02290790
1.082228	0.02252640
1.082338	0.02214830
1.082447	0.02177270
1.082556	0.02140010
1.082666	0.02103070
1.082775	0.02066390
1.082886	0.02029620
1.082995	0.01993500
1.083104	0.01957810
1.083214	0.01922430
1.083323	0.01887300
1.083434	0.01852100
1.083543	0.01817590
1.083653	0.01783340
1.083762	0.01749380
1.083872	0.01715710
1.083981	0.01682330
1.084091	0.01649330
1.084200	0.01616650
1.084310	0.01584260
1.084421	0.01551850
1.084530	0.01520030
1.084640	0.01488500
1.084749	0.01457260
1.084859	0.01426310
1.084970	0.01395310
1.085079	0.01364790
1.085189	0.01334540
1.085298	0.01304560
1.085408	0.01274910
1.085518	0.01245550
1.085627	0.01216480
1.085737	0.01187700
1.085848	0.01158920
1.085958	0.01130740
1.086067	0.01102870
1.086177	0.01075330
1.086287	0.01048070
1.086396	0.01021130
1.086507	0.00994180
1.086617	0.00967830
1.086727	0.00941770
1.086837	0.00915980
1.086946	0.00890510
1.087056	0.00865340
1.087166	0.00840460
1.087276	0.00815890
1.087387	0.00791340
1.087497	0.00767340
1.087607	0.00743650
1.087717	0.00720260
1.087826	0.00697170
1.087936	0.00674370
1.088047	0.00651590
1.088157	0.00629360
1.088267	0.00607400
1.088377	0.00585740
1.088487	0.00564380
1.088597	0.00543320
1.088707	0.00522570
1.088818	0.00501910
1.088927	0.00481970
